Freq (Hz)	SE_unstirred(dB)	SE_stirred(dB)	SE_tot	<SE point (dB)>	Stdev(SE point (dB))
200000000	48.043	0.973204	14.036	15.762	4.967
250000000	32.897	3.796567	18.271	20.920	6.142
300000000	48.840	8.694421	20.239	22.560	6.527
350000000	45.062	16.599552	25.986	28.151	6.597
400000000	47.152	16.486400	26.373	28.495	6.097
450000000	44.733	16.770089	26.417	28.097	5.827
500000000	40.175	20.744752	28.960	31.168	6.286
550000000	42.933	27.847251	32.081	33.545	6.240
600000000	29.309	26.557706	28.177	29.273	6.291
650000000	37.219	28.512940	32.077	33.435	6.799
700000000	35.095	35.083848	35.088	35.077	7.904
750000000	38.160	26.551557	29.676	30.614	6.986
800000000	36.088	26.166872	30.443	31.819	6.908
850000000	35.803	25.755755	29.565	31.151	7.603
900000000	49.089	33.707812	35.015	36.229	7.573
950000000	50.818	32.973719	35.458	36.254	7.554
1000000000	29.713	32.936369	31.783	32.375	6.294
1050000000	35.822	36.140794	36.023	36.230	7.050
1100000000	44.206	34.483478	37.720	38.712	7.028
1150000000	39.138	35.914671	37.298	37.198	8.031
1200000000	40.000	37.165087	38.173	38.610	7.263
1250000000	30.980	33.448356	32.290	31.546	6.574
1300000000	24.575	26.415066	25.863	26.059	7.755
1350000000	33.509	35.246338	34.141	33.406	6.113
1400000000	37.548	35.585139	36.145	36.439	6.015
1450000000	22.190	28.520899	25.270	24.441	6.371
1500000000	31.472	34.364281	33.055	32.480	8.087
1550000000	29.670	37.355407	33.519	32.408	6.468
1600000000	31.313	36.758798	33.924	33.295	7.494
1650000000	28.406	31.158831	29.669	29.155	5.729
1700000000	31.118	30.369091	30.670	30.386	7.115
1750000000	39.883	29.461739	30.875	30.762	7.133
1800000000	45.680	27.094256	27.856	27.901	7.553
1850000000	39.539	33.057925	34.189	35.001	7.508
1900000000	28.995	32.547306	31.154	31.185	6.568
1950000000	25.632	30.796963	28.941	28.131	7.894
2000000000	25.358	27.957257	26.945	27.832	7.348
2050000000	19.113	25.869625	23.820	23.043	7.363
2100000000	27.534	32.413695	30.852	30.207	8.045
2150000000	24.068	33.223609	29.695	28.898	6.353
2200000000	21.934	28.225397	25.200	24.128	7.809
2250000000	23.915	29.885331	28.156	27.152	8.429
2300000000	32.779	32.986354	32.920	33.114	8.214
2350000000	30.597	31.372503	31.236	31.454	6.796
2400000000	24.462	32.913144	30.398	29.687	7.327
2450000000	30.853	31.836280	31.516	31.793	6.892
2500000000	29.362	30.026063	29.901	28.911	7.082
2550000000	34.426	30.342289	31.392	31.254	7.834
2600000000	31.958	28.617227	29.756	29.416	7.525
2650000000	27.568	25.365482	26.412	26.811	7.475
2700000000	25.120	28.133879	27.309	27.625	8.149
2750000000	27.874	29.290607	28.987	28.462	7.757
2800000000	23.053	27.011194	25.707	25.970	7.989
2850000000	18.327	25.035956	22.000	20.859	7.038
2900000000	12.402	22.740203	16.890	15.291	5.753
2950000000	16.000	23.017429	19.950	18.906	6.323
3000000000	10.630	22.352486	20.695	20.426	7.525
3050000000	18.020	20.250271	19.965	19.847	8.033
3100000000	13.186	19.537681	17.544	16.917	6.942
3150000000	7.968	16.156432	14.205	14.229	8.273
3200000000	2.460	11.831068	9.390	9.173	7.564
3250000000	9.001	12.442525	11.200	10.798	6.846
3300000000	-4.326	8.481500	6.033	5.933	7.314
3350000000	3.347	5.763990	4.989	5.059	7.074
3400000000	3.298	4.196928	4.074	4.537	7.744
3450000000	-4.675	5.534868	3.181	2.848	7.832
3500000000	-4.280	10.806148	5.105	3.763	6.320
3550000000	-0.882	9.744222	5.732	4.599	6.935
3600000000	1.611	9.156578	6.806	6.672	6.976
3650000000	16.635	13.284765	13.808	13.167	7.005
3700000000	18.452	15.546749	15.766	15.321	8.197
3750000000	18.017	18.624615	18.548	18.168	8.415
3800000000	12.431	18.099535	17.031	15.472	7.148
3850000000	9.530	21.044488	19.684	19.649	7.811
3900000000	13.610	23.702511	19.678	19.063	6.449
3950000000	11.081	22.519789	18.321	17.309	7.175
4000000000	21.636	23.880745	22.856	22.711	5.996
4050000000	27.319	24.003648	24.280	24.387	7.267
4100000000	4.442	23.972581	21.898	22.050	6.673
4150000000	16.729	25.821045	21.526	21.367	7.840
4200000000	10.798	26.726712	22.336	20.496	7.803
4250000000	15.812	26.668246	22.682	21.238	8.952
4300000000	8.623	27.156411	20.251	17.962	7.333
4350000000	11.431	27.871422	21.329	19.381	6.673
4400000000	16.384	29.911485	24.103	22.931	6.673
4450000000	8.729	29.465845	25.038	23.985	6.963
4500000000	3.764	28.340365	22.214	20.122	7.237
4550000000	6.329	28.155030	21.343	20.610	5.516
4600000000	11.088	29.879337	21.856	20.243	5.903
4650000000	17.592	30.266827	24.653	22.599	7.478
4700000000	15.385	28.450391	22.693	21.146	6.455
4750000000	12.574	27.936320	22.866	21.259	8.113
4800000000	14.018	27.639487	22.420	20.958	6.403
4850000000	2.073	27.984021	21.484	20.354	5.890
4900000000	6.509	28.045725	23.381	22.513	7.315
4950000000	17.253	25.543285	25.008	24.936	8.841
5000000000	5.040	24.432327	22.980	22.592	7.527
5050000000	14.001	22.067801	20.485	20.460	6.488
5100000000	12.565	23.033594	20.668	20.156	7.600
5150000000	9.735	21.265762	18.188	18.359	7.655
5200000000	6.086	17.091000	13.450	13.173	6.572
5250000000	10.423	14.570035	12.863	12.838	8.179
5300000000	20.692	10.881548	11.748	11.860	7.495
5350000000	-8.642	5.890355	3.792	4.114	7.993
5400000000	-19.618	0.224008	-4.198	-5.647	7.684
5450000000	-1.487	3.499498	2.966	2.379	9.059
5500000000	-5.337	4.699727	1.255	-0.428	8.393
5550000000	-6.018	6.980315	2.299	0.488	6.734
5600000000	-0.223	8.299917	4.581	4.521	6.559
5650000000	2.408	11.332736	6.287	5.155	5.678
5700000000	0.836	11.277398	6.365	5.392	5.810
5750000000	3.584	11.874200	8.252	6.633	6.526
5800000000	3.734	10.788026	8.578	8.752	7.146
5850000000	6.103	12.185989	10.751	11.108	8.246
5900000000	6.335	13.591219	11.416	10.616	7.506
5950000000	12.439	15.105965	14.574	14.775	8.454
6000000000	14.445	15.443706	15.059	14.985	7.194
6050000000	11.695	14.818119	13.359	13.206	6.892
6100000000	12.059	17.259056	14.444	13.534	7.198
6150000000	10.052	14.992712	12.743	12.355	7.215
6200000000	15.927	17.014518	16.543	16.591	6.469
6250000000	15.738	17.564087	16.477	15.994	7.112
6300000000	19.563	19.751878	19.662	19.379	7.208
6350000000	18.904	19.197299	19.025	18.870	7.330
6400000000	11.298	19.164805	14.841	13.264	6.780
6450000000	13.821	18.036752	15.264	14.123	6.575
6500000000	16.328	19.735692	17.821	17.715	6.637
6550000000	21.364	18.770967	20.012	20.765	8.329
6600000000	18.004	17.260033	17.679	18.017	7.014
6650000000	12.018	15.782523	13.509	12.679	7.086
6700000000	10.524	14.987139	11.883	10.963	5.660
6750000000	10.033	13.085060	10.961	10.093	6.062
6800000000	7.066	10.943506	8.180	7.495	6.032
6850000000	1.547	4.379662	2.719	1.991	6.482
6900000000	0.349	2.968975	1.130	0.828	4.711
6950000000	3.406	6.751384	4.386	3.600	5.331
7000000000	3.334	9.845348	5.101	4.033	5.461
7050000000	6.924	10.318831	7.803	6.644	5.770
7100000000	6.613	12.765699	8.103	7.017	5.386
7150000000	8.667	12.624594	9.422	8.563	4.755
7200000000	8.191	15.000395	9.406	8.252	4.652
7250000000	6.293	13.938284	7.845	6.303	5.489
7300000000	6.506	14.073013	8.009	6.629	5.358
7350000000	7.124	12.477024	8.016	7.080	4.526
7400000000	6.681	12.500820	7.733	6.774	4.456
7450000000	7.616	9.646545	8.041	7.897	4.316
7500000000	4.999	9.837883	5.943	5.490	3.599
7550000000	3.348	7.968364	4.189	3.186	5.320
7600000000	3.209	6.900815	3.899	3.355	3.867
7650000000	2.314	4.040588	2.677	2.137	5.000
7700000000	-1.182	1.712634	-0.492	-0.684	4.724
7750000000	2.693	1.551288	2.387	2.636	6.560
7800000000	1.191	3.702609	1.632	1.007	4.407
7850000000	5.530	7.414175	5.856	5.573	4.825
7900000000	10.893	9.746190	10.661	10.937	4.769
7950000000	9.832	12.653043	10.461	9.835	4.861
8000000000	9.317	14.450804	10.602	9.756	4.797
8050000000	13.894	16.091910	14.279	14.040	3.798
8100000000	18.295	16.706981	17.865	18.279	5.368
8150000000	16.909	17.066701	16.961	16.521	5.436
8200000000	18.262	18.605342	18.329	18.278	4.211
8250000000	15.485	17.815242	16.085	15.500	5.610
8300000000	17.319	16.158136	17.061	17.263	4.852
8350000000	18.800	17.295756	18.353	18.391	5.822
8400000000	19.911	18.309535	19.289	18.908	7.339
8450000000	14.342	16.963779	15.167	15.374	5.315
8500000000	16.245	15.627441	16.064	16.379	6.793
8550000000	14.080	15.424944	14.462	14.188	5.451
8600000000	15.542	14.396391	15.198	15.318	6.031
8650000000	7.074	12.037906	8.423	7.611	6.643
8700000000	5.065	10.183509	6.154	5.212	5.294
8750000000	0.864	6.763110	2.011	1.071	4.718
8800000000	-1.316	5.410897	0.122	-0.930	4.663
8850000000	9.910	2.786179	6.633	7.052	6.360
8900000000	4.730	5.115335	4.829	4.621	5.260
8950000000	3.440	8.562457	4.418	3.634	4.688
9000000000	4.482	13.081972	6.463	5.239	4.452
9050000000	9.328	14.613426	10.415	9.716	3.981
9100000000	11.559	15.948237	12.956	11.688	6.457
9150000000	12.700	14.886018	13.141	12.572	4.655
9200000000	12.329	16.582524	13.242	12.659	4.741
9250000000	11.367	17.813061	13.712	12.545	5.757
9300000000	13.034	19.105062	15.135	14.183	6.009
9350000000	18.190	16.834046	17.758	17.947	5.893
9400000000	12.371	17.458969	14.975	14.469	6.539
9450000000	14.626	16.650807	15.620	13.846	8.661
9500000000	17.107	15.750313	16.275	17.183	6.587
9550000000	19.370	15.455923	16.936	17.009	6.171
9600000000	17.013	13.686472	14.959	15.005	6.327
9650000000	14.180	14.470809	14.386	14.015	9.141
9700000000	19.722	13.764985	15.099	15.195	8.757
9750000000	25.226	13.584818	16.327	16.771	6.210
9800000000	21.467	13.417571	15.984	15.807	7.794
9850000000	17.251	10.211514	11.690	12.125	6.413
9900000000	14.681	9.627260	10.972	11.128	7.713
9950000000	5.503	7.235160	6.653	6.397	7.763
10000000000	10.033	5.025651	6.323	6.331	8.129
10050000000	1.400	2.662578	2.236	1.822	7.828
10100000000	-8.179	-1.121152	-4.523	-4.692	6.418
10150000000	-16.061	2.047526	-5.980	-8.657	7.482
10200000000	-5.193	4.232631	-2.658	-3.981	4.863
10250000000	-3.084	4.428602	-0.839	-1.716	4.938
10300000000	-2.077	5.380931	2.451	2.518	7.408
10350000000	-2.782	3.983348	2.146	1.817	7.763
10400000000	-4.982	4.068233	2.706	2.280	8.167
10450000000	3.987	8.192001	6.314	5.981	8.176
10500000000	5.651	13.248606	9.532	9.104	6.666
10550000000	-5.553	15.775496	9.213	7.848	6.161
10600000000	4.372	16.292733	9.354	7.551	5.783
10650000000	1.224	14.287597	7.624	6.040	6.186
10700000000	3.760	12.245307	8.239	7.778	6.372
10750000000	1.276	9.186030	6.511	6.228	6.767
10800000000	1.641	6.161407	4.475	3.459	8.173
10850000000	2.817	3.147712	3.034	2.833	7.296
10900000000	-0.128	1.038193	0.741	0.532	6.738
10950000000	-3.436	-1.529086	-2.295	-2.221	6.415
11000000000	-7.530	-0.735058	-4.457	-5.356	7.065
11050000000	-4.845	-1.233341	-3.301	-3.676	8.012
11100000000	-7.344	2.052415	-2.019	-3.448	6.636
11150000000	-1.631	4.644191	2.145	1.712	8.067
11200000000	0.391	4.931605	2.938	2.756	6.627
11250000000	-5.223	6.710506	2.090	1.168	6.679
11300000000	1.272	7.872872	4.314	3.398	5.684
11350000000	4.381	11.540132	8.108	7.836	7.173
11400000000	-7.088	10.311831	4.329	3.104	5.703
11450000000	0.908	11.491831	5.516	4.191	6.064
11500000000	5.989	12.931174	8.717	7.335	5.400
11550000000	4.242	16.283485	11.737	10.638	8.226
11600000000	8.793	17.534701	12.959	11.365	7.218
11650000000	4.027	16.110544	10.390	9.538	5.330
11700000000	6.401	16.335905	10.919	9.327	6.331
11750000000	7.666	17.804297	12.515	11.346	5.925
11800000000	9.672	16.880942	14.905	14.693	7.202
11850000000	10.294	15.555392	14.631	13.548	9.360
11900000000	11.702	14.884265	14.217	14.372	7.536
11950000000	17.344	13.436860	14.506	14.121	8.225
12000000000	21.616	11.358018	13.166	13.260	6.465
12050000000	12.544	8.584811	9.426	8.941	7.596
12100000000	12.724	7.812102	9.291	9.001	7.640
12150000000	1.620	5.258239	4.796	5.281	8.545
12200000000	0.508	3.852471	2.676	2.584	7.504
12250000000	1.351	-0.461722	0.016	0.013	8.041
12300000000	-10.424	-1.135800	-2.997	-2.395	8.036
12350000000	-3.279	0.290919	-0.655	-1.020	8.400
12400000000	-1.876	3.666627	1.425	1.080	7.125
12450000000	-1.701	4.168082	0.603	-0.288	5.885
12500000000	-6.089	3.926467	-1.588	-3.393	7.054
12550000000	-0.671	4.783312	1.568	0.763	5.839
12600000000	-1.600	9.813531	4.955	3.570	7.264
12650000000	7.718	8.898793	8.213	7.949	8.034
12700000000	6.217	10.437077	8.371	8.213	7.143
12750000000	4.142	10.711259	6.972	5.669	7.391
12800000000	4.725	12.665745	7.595	6.352	6.166
12850000000	6.685	14.249093	8.903	7.078	5.905
12900000000	7.932	14.704807	9.883	8.496	6.462
12950000000	6.898	13.896835	9.376	8.686	5.572
13000000000	4.388	14.838671	8.578	7.171	5.397
13050000000	3.621	12.711816	6.854	4.687	7.379
13100000000	0.813	9.834018	5.586	5.014	6.218
13150000000	0.591	5.765825	3.703	3.902	6.784
13200000000	-8.089	4.919695	-1.187	-1.900	6.566
13250000000	-10.874	5.152209	-3.294	-5.060	6.171
13300000000	-2.520	8.272004	1.234	-0.953	5.829
13350000000	4.987	10.123521	7.757	7.263	8.206
13400000000	5.714	10.876267	9.183	8.530	7.263
13450000000	10.201	12.543836	11.459	11.327	7.143
13500000000	9.268	13.171113	11.128	10.644	7.896
13550000000	4.564	13.557010	8.369	7.340	5.745
13600000000	8.841	13.543589	10.646	9.541	6.125
13650000000	8.015	14.028016	10.600	9.734	6.750
13700000000	5.785	12.763037	8.089	6.829	6.194
13750000000	-0.295	10.057301	3.178	1.155	6.262
13800000000	-7.162	8.623113	-0.010	-2.307	6.213
13850000000	-3.933	5.987805	-1.203	-3.104	5.978
13900000000	-8.395	6.146542	-2.844	-4.271	4.812
13950000000	-3.411	6.420498	-0.560	-2.590	6.689
14000000000	4.244	7.394976	4.863	4.362	4.278
14050000000	4.570	8.867971	5.655	4.904	4.684
14100000000	6.788	10.625271	8.605	7.936	7.690
14150000000	9.366	10.487651	9.842	9.792	8.051
14200000000	9.386	8.725407	8.860	8.810	7.778
14250000000	0.710	7.329937	3.530	2.652	6.843
14300000000	8.113	7.972133	8.041	7.974	5.595
14350000000	4.066	10.621694	5.864	4.483	5.494
14400000000	6.523	11.029538	7.636	6.878	5.035
14450000000	4.087	11.461114	6.379	4.835	5.803
14500000000	1.230	12.790599	6.372	5.122	5.631
14550000000	2.731	11.425268	6.420	4.934	7.215
14600000000	2.397	11.190402	6.257	4.640	6.497
14650000000	6.094	9.249571	6.948	6.085	4.543
14700000000	0.094	6.886370	1.861	0.185	6.246
14750000000	-3.033	3.646404	-1.628	-3.193	5.327
14800000000	-22.956	0.238074	-10.337	-12.624	5.892
14850000000	-18.524	1.512931	-7.211	-9.896	7.723
14900000000	-11.964	2.822015	-4.248	-5.952	6.586
14950000000	-7.632	0.509158	-3.685	-4.188	5.661
15000000000	-2.191	4.139414	0.833	0.518	5.745
15050000000	5.697	7.708050	6.646	6.692	7.155
15100000000	12.864	9.128510	10.542	11.003	6.437
15150000000	9.862	9.560278	9.597	8.071	8.966
15200000000	4.946	11.814509	10.005	9.560	7.138
15250000000	5.299	9.644892	8.194	7.667	8.527
15300000000	6.568	11.112790	9.779	9.475	8.461
15350000000	7.508	9.686074	9.043	8.317	8.589
15400000000	10.658	7.949944	8.916	9.290	7.325
15450000000	11.916	5.868977	7.365	7.138	9.124
15500000000	-6.332	3.704855	-0.341	-0.960	8.034
15550000000	-6.755	1.223148	-1.768	-1.890	7.243
15600000000	-4.453	3.504374	-0.312	-1.234	6.957
15650000000	-16.509	2.133066	-7.306	-8.642	4.536
15700000000	-10.108	3.986292	-6.062	-7.791	5.615
15750000000	-20.743	7.216062	-5.057	-7.777	6.963
15800000000	-2.443	10.664094	0.722	-1.179	5.460
15850000000	-5.296	12.115531	0.580	-1.997	5.579
15900000000	-1.039	13.146630	2.825	0.730	5.729
15950000000	0.847	12.725768	4.520	3.556	4.639
16000000000	-2.701	12.596324	3.884	2.117	5.982
16050000000	0.725	10.643511	3.678	1.587	6.138
16100000000	-5.791	9.668948	3.224	1.779	5.803
16150000000	-2.888	7.555478	3.050	1.973	5.458
16200000000	-2.445	3.990764	0.783	0.117	6.582
16250000000	0.112	3.430584	2.158	2.654	7.033
16300000000	6.686	4.554928	4.983	4.421	7.740
16350000000	-2.330	8.464595	4.010	3.484	5.772
16400000000	-2.387	8.944586	3.558	2.090	6.438
16450000000	4.950	10.407695	8.279	6.865	7.959
16500000000	0.090	10.499627	7.136	7.295	6.983
16550000000	5.713	11.577592	9.642	9.751	7.904
16600000000	7.870	13.930009	11.294	10.907	5.999
16650000000	5.432	13.343759	9.738	8.508	6.022
16700000000	6.748	13.839553	10.743	10.203	6.125
16750000000	-1.724	13.163587	8.744	8.047	6.903
16800000000	-5.728	11.285521	4.350	2.582	6.848
16850000000	0.657	10.501273	5.270	3.419	6.990
16900000000	-3.833	9.318580	5.972	5.747	6.530
16950000000	5.099	7.834767	7.114	6.660	6.936
17000000000	-1.664	4.084930	2.370	2.272	6.861
17050000000	-5.332	3.403433	0.231	-0.643	5.594
17100000000	-14.927	3.904613	-4.415	-5.975	5.144
17150000000	-15.340	3.159261	-3.874	-5.311	6.541
17200000000	-3.278	4.608320	0.901	0.137	6.502
17250000000	-12.016	4.838703	1.067	0.273	6.614
17300000000	1.397	4.401318	3.395	3.194	7.459
17350000000	-1.734	1.443755	0.500	0.111	7.357
17400000000	4.280	0.715303	1.049	1.136	6.740
17450000000	-3.530	3.436517	2.973	3.183	8.589
17500000000	-16.745	4.351155	2.326	2.218	7.798
17550000000	-15.033	3.416437	0.473	0.148	7.119
17600000000	-13.219	1.850577	-2.200	-2.931	7.630
17650000000	-8.791	2.451683	0.250	0.183	8.998
17700000000	-8.442	3.689418	0.282	-0.339	7.159
17750000000	-11.007	3.648800	-4.357	-6.039	6.124
17800000000	-19.511	1.733225	-8.734	-11.006	6.540
17850000000	-21.175	1.584373	-7.150	-8.519	5.605
17900000000	-24.155	4.518291	-4.463	-5.954	6.435
17950000000	-13.834	4.129257	-4.087	-5.785	5.781
18000000000	-7.568	3.846195	-2.687	-3.961	5.795
18050000000	-9.655	4.353958	-1.286	-2.587	6.313
18100000000	-8.151	8.114373	2.940	2.621	8.071
18150000000	-10.310	8.702201	3.381	2.060	6.729
18200000000	-1.554	8.291992	6.520	5.950	8.461
18250000000	-3.590	10.180457	8.095	8.419	6.766
18300000000	5.450	10.143949	7.800	7.886	6.602
18350000000	-7.262	10.524419	4.214	2.652	6.564
18400000000	-9.086	8.435162	1.107	-0.412	6.014
18450000000	-6.324	10.475910	2.350	0.797	5.948
18500000000	-7.702	9.532575	1.388	-1.051	6.528
18550000000	-18.903	6.244305	0.354	-0.829	7.008
18600000000	-10.159	5.110141	0.425	-0.176	6.313
18650000000	-6.940	4.325526	-0.423	-1.222	6.530
18700000000	-8.922	3.806058	-1.185	-2.185	6.709
18750000000	-14.913	6.259420	1.652	1.687	7.738
18800000000	-8.670	7.798967	3.072	2.519	7.118
18850000000	-14.362	6.945327	-0.732	-2.382	6.513
18900000000	-9.914	8.589986	-0.596	-2.575	6.359
18950000000	-15.390	4.985629	-3.756	-5.240	5.383
19000000000	-18.815	4.813983	-5.303	-7.024	5.378
19050000000	-11.886	4.982183	-4.348	-7.317	6.291
19100000000	-7.820	7.737079	-3.229	-5.378	6.008
19150000000	-15.411	7.520250	-4.680	-7.112	5.704
19200000000	-6.492	8.461038	-1.383	-3.641	6.050
19250000000	-16.386	7.971957	-4.421	-5.868	4.390
19300000000	-14.963	8.257525	-6.648	-9.407	5.903
19350000000	-35.378	6.661969	-8.055	-10.765	6.272
19400000000	-16.350	4.911837	-8.833	-10.778	4.924
19450000000	-14.018	4.271570	-9.161	-11.615	6.065
19500000000	-16.953	3.750776	-10.778	-13.395	6.618
19550000000	-21.237	1.049577	-11.236	-13.533	6.103
19600000000	-19.309	0.256680	-9.308	-11.219	5.109
19650000000	-18.457	0.651343	-8.950	-10.755	5.213
19700000000	-20.587	2.225088	-10.552	-12.723	5.599
19750000000	-17.616	3.325511	-8.638	-11.113	5.998
19800000000	-14.376	4.899588	-7.029	-8.780	4.936
19850000000	-7.565	4.194486	-3.443	-5.399	5.701
19900000000	-8.586	4.007210	-4.139	-5.849	5.780
19950000000	-37.359	2.685736	-8.466	-10.284	5.535
20000000000	-22.310	1.891433	-11.329	-13.926	6.597
