Freq (Hz)	SE_unstirred(dB)	SE_stirred(dB)	SE_tot	<SE point (dB)>	Stdev(SE point (dB))
200000000	27.296	3.764386	22.023	23.782	4.663
250000000	27.239	3.016244	23.776	26.049	5.042
300000000	29.413	7.391179	26.551	28.738	5.375
350000000	28.505	15.344542	27.220	28.592	4.089
400000000	30.070	14.953757	28.900	30.204	3.979
450000000	28.675	11.500937	27.572	28.273	2.790
500000000	30.209	15.735889	29.535	30.262	2.859
550000000	31.131	22.744793	30.503	31.107	2.952
600000000	31.199	21.206436	30.462	31.110	3.071
650000000	30.221	28.064885	30.047	30.314	2.982
700000000	30.863	28.328741	30.610	30.905	3.041
750000000	31.851	21.194628	30.599	31.797	4.157
800000000	31.655	24.883550	30.848	31.390	3.496
850000000	30.273	28.040820	30.056	30.242	3.326
900000000	29.941	28.099542	29.701	30.037	3.088
950000000	30.899	29.373252	30.713	30.953	2.772
1000000000	30.231	29.621025	30.144	30.105	4.028
1050000000	31.341	30.920763	31.272	31.191	3.695
1100000000	31.659	30.181403	31.468	31.722	3.795
1150000000	31.833	29.895623	31.486	31.827	4.037
1200000000	31.575	31.140613	31.502	31.596	3.295
1250000000	31.501	30.319729	31.348	31.393	3.548
1300000000	30.339	30.530908	30.366	30.543	3.411
1350000000	30.569	30.029473	30.510	30.493	3.380
1400000000	30.927	30.562377	30.883	31.038	3.066
1450000000	32.029	30.251483	31.810	31.910	3.360
1500000000	31.670	32.019191	31.718	31.776	3.430
1550000000	30.520	31.143538	30.648	30.195	4.311
1600000000	31.076	30.590399	30.975	31.216	4.776
1650000000	31.948	30.535083	31.658	32.206	3.876
1700000000	31.284	29.709548	31.002	31.072	3.731
1750000000	30.564	29.530284	30.378	30.463	4.910
1800000000	29.287	29.642008	29.342	29.271	3.466
1850000000	28.575	27.512971	28.382	28.395	3.637
1900000000	28.169	26.692233	27.874	28.057	4.401
1950000000	27.601	26.438505	27.353	27.638	5.634
2000000000	26.320	24.976493	26.108	26.481	3.518
2050000000	25.675	24.313748	25.421	25.575	4.323
2100000000	25.431	24.604577	25.303	25.468	3.821
2150000000	25.723	24.931440	25.588	25.741	4.360
2200000000	26.815	24.906189	26.493	26.844	4.561
2250000000	25.903	26.350827	25.979	25.881	4.118
2300000000	26.278	27.599622	26.510	25.990	4.638
2350000000	27.240	25.655047	27.030	27.225	3.392
2400000000	27.479	26.519115	27.344	27.545	3.222
2450000000	27.807	25.981545	27.562	27.897	4.196
2500000000	28.887	26.523133	28.608	28.811	2.990
2550000000	27.334	26.670389	27.230	27.211	3.639
2600000000	27.810	26.021117	27.529	27.481	3.874
2650000000	29.138	27.368576	28.917	29.221	3.484
2700000000	30.571	29.423705	30.421	30.525	3.373
2750000000	30.488	30.138365	30.448	30.683	3.035
2800000000	30.674	28.124020	30.307	30.515	3.900
2850000000	31.367	29.202852	31.061	31.578	4.348
2900000000	30.174	29.239559	30.027	30.074	3.730
2950000000	31.422	29.112990	31.057	31.610	3.967
3000000000	30.283	28.591141	30.009	30.076	3.765
3050000000	31.953	28.352114	31.417	31.861	4.425
3100000000	32.300	29.277474	31.888	32.256	3.474
3150000000	33.901	28.806953	33.086	33.872	4.128
3200000000	32.215	28.597668	31.665	32.263	3.828
3250000000	33.603	30.509646	33.063	33.747	4.562
3300000000	33.982	29.573892	33.147	33.849	4.663
3350000000	34.517	30.940247	33.976	34.687	4.369
3400000000	34.389	29.928198	33.466	34.307	5.985
3450000000	34.670	29.488137	33.699	34.326	4.724
3500000000	36.180	30.896111	35.126	36.525	5.663
3550000000	35.456	31.042658	34.610	35.511	4.760
3600000000	36.473	31.551899	35.417	35.982	4.919
3650000000	38.345	30.902416	36.585	38.103	5.580
3700000000	39.953	31.131182	37.624	39.082	5.204
3750000000	37.493	31.015376	36.286	37.343	4.556
3800000000	38.184	31.381380	36.514	38.228	5.947
3850000000	40.592	32.888957	37.939	39.051	5.510
3900000000	41.611	30.747062	37.976	39.299	4.854
3950000000	43.284	29.859160	39.011	41.075	5.901
4000000000	40.275	30.898630	37.688	39.239	5.778
4050000000	40.435	31.110809	37.246	38.787	5.842
4100000000	38.891	30.183162	36.073	37.987	6.864
4150000000	38.604	30.862758	36.833	38.051	4.973
4200000000	37.801	30.676186	36.182	37.947	6.209
4250000000	37.536	29.832641	35.259	36.682	4.935
4300000000	33.758	30.641481	33.141	33.834	4.710
4350000000	32.366	30.178691	32.105	32.357	3.672
4400000000	31.606	29.775123	31.312	31.854	4.275
4450000000	32.050	29.230537	31.476	31.919	4.633
4500000000	28.184	28.488875	28.236	27.850	5.071
4550000000	28.799	28.425751	28.751	29.009	3.730
4600000000	29.650	27.609553	29.363	29.695	4.143
4650000000	28.982	28.936821	28.977	28.938	3.310
4700000000	27.598	27.870780	27.632	27.590	3.323
4750000000	24.885	27.707071	25.215	24.951	3.313
4800000000	25.830	27.891328	26.052	25.779	2.988
4850000000	26.799	27.679718	26.894	26.773	3.021
4900000000	25.993	29.553154	26.521	25.938	4.193
4950000000	25.331	26.959339	25.522	25.275	3.088
5000000000	25.687	27.787668	25.897	25.683	2.830
5050000000	25.073	28.124318	25.355	25.102	2.870
5100000000	24.379	27.968217	24.904	24.667	3.470
5150000000	24.071	28.280380	24.910	24.119	5.449
5200000000	26.283	26.430582	26.301	26.245	2.832
5250000000	27.175	27.834236	27.240	27.245	3.165
5300000000	26.074	27.280362	26.249	26.156	3.707
5350000000	27.282	27.163257	27.267	27.327	3.391
5400000000	26.047	26.494652	26.102	25.995	3.216
5450000000	26.126	26.567601	26.177	26.009	3.541
5500000000	27.061	26.301161	26.943	26.917	4.630
5550000000	26.851	26.171065	26.728	26.847	4.475
5600000000	28.788	25.853023	28.218	28.756	4.846
5650000000	26.741	24.956964	26.493	26.546	3.518
5700000000	25.629	24.145820	25.410	25.571	3.845
5750000000	23.948	23.499377	23.868	23.852	4.193
5800000000	23.288	23.584388	23.349	23.135	4.387
5850000000	25.265	22.153057	24.783	25.123	4.023
5900000000	24.840	21.581705	24.286	25.126	4.444
5950000000	24.908	20.700418	23.953	25.039	5.011
6000000000	21.720	19.950403	21.367	21.392	4.368
6050000000	22.196	18.547757	21.554	22.065	3.998
6100000000	22.264	17.041458	21.371	22.165	4.127
6150000000	20.106	17.069013	19.433	19.896	4.640
6200000000	19.569	16.130668	18.907	19.616	4.575
6250000000	19.214	14.552208	18.561	19.268	3.701
6300000000	18.791	13.239763	18.113	18.807	3.573
6350000000	13.098	11.512885	12.828	13.267	4.254
6400000000	11.932	9.241436	11.391	11.939	4.620
6450000000	13.027	8.183740	12.186	12.738	4.219
6500000000	12.134	7.771859	11.575	12.247	4.061
6550000000	9.099	3.820940	8.418	9.264	4.063
6600000000	5.292	1.603460	4.595	5.100	4.088
6650000000	5.937	1.371967	5.086	5.782	4.393
6700000000	6.130	0.204159	5.348	6.211	4.463
6750000000	6.312	1.036205	5.300	5.885	3.910
6800000000	7.444	2.690745	6.090	7.236	6.040
6850000000	14.484	6.386682	11.817	13.553	6.277
6900000000	13.303	6.163155	12.192	12.938	4.081
6950000000	13.799	8.475909	13.165	13.861	3.726
7000000000	14.154	7.958381	13.095	14.342	5.692
7050000000	15.877	8.604753	14.152	15.694	5.957
7100000000	17.743	9.707749	16.003	17.105	4.930
7150000000	16.350	11.553799	15.634	16.265	3.464
7200000000	17.284	13.004032	16.808	17.371	3.656
7250000000	16.973	13.727900	16.030	16.579	6.400
7300000000	21.416	13.258887	19.949	21.632	5.532
7350000000	18.717	14.930044	18.226	18.673	3.236
7400000000	18.329	15.528171	17.912	18.174	3.792
7450000000	17.979	18.037917	17.995	18.192	6.498
7500000000	20.981	17.523609	20.380	20.946	4.463
7550000000	21.145	18.361712	20.871	21.237	3.308
7600000000	21.669	21.085442	21.622	21.636	2.917
7650000000	23.441	25.596429	23.705	23.506	3.295
7700000000	23.187	26.518859	23.673	23.027	3.980
7750000000	25.585	25.462366	25.577	25.677	2.537
7800000000	26.396	26.017316	26.365	26.272	2.468
7850000000	27.406	27.227759	27.376	27.388	3.768
7900000000	25.017	28.329995	25.722	25.267	5.235
7950000000	29.783	27.754847	29.517	29.650	3.244
8000000000	33.093	26.540459	31.790	32.475	3.715
8050000000	31.923	25.608990	29.867	31.172	6.509
8100000000	21.633	24.579821	22.865	22.439	6.889
8150000000	25.875	25.108182	25.631	25.878	5.466
8200000000	32.591	26.104880	31.397	32.741	5.648
8250000000	44.693	23.613546	32.358	33.851	6.166
8300000000	28.719	22.831384	26.584	27.545	6.162
8350000000	26.222	24.374280	25.428	25.236	6.744
8400000000	34.275	24.449242	29.043	30.028	7.549
8450000000	33.536	24.664921	30.023	31.422	6.054
8500000000	31.981	22.594127	27.255	28.136	6.616
8550000000	16.383	22.823710	21.500	20.921	8.787
8600000000	35.725	23.072659	28.203	29.614	6.724
8650000000	41.486	22.858602	29.932	31.945	6.981
8700000000	33.475	22.674608	28.340	29.098	6.003
8750000000	20.483	21.695846	21.155	21.726	7.027
8800000000	17.447	23.196926	22.404	23.469	7.721
8850000000	40.839	24.863389	29.442	30.267	7.545
8900000000	26.060	22.093191	24.105	24.759	7.950
8950000000	25.761	22.075948	23.978	24.537	7.063
9000000000	17.755	22.278808	21.018	20.387	7.467
9050000000	25.380	21.774865	22.989	22.985	7.157
9100000000	33.278	22.310861	26.892	28.238	7.253
9150000000	24.327	21.518283	22.756	21.819	7.438
9200000000	21.641	21.549719	21.581	21.780	9.364
9250000000	27.383	21.951333	22.909	23.984	9.400
9300000000	35.243	21.166055	24.477	25.576	7.325
9350000000	32.595	21.059516	25.480	26.261	6.241
9400000000	22.281	19.484219	20.930	21.090	6.968
9450000000	17.710	21.520439	20.871	20.627	8.202
9500000000	26.176	22.070501	22.728	22.281	6.726
9550000000	34.245	19.687449	22.504	22.961	6.739
9600000000	21.830	19.990742	20.794	21.549	8.004
9650000000	21.849	20.272136	20.818	21.795	6.717
9700000000	27.043	19.687814	20.988	20.997	9.373
9750000000	26.756	19.377883	21.248	21.026	9.503
9800000000	21.200	18.142668	19.424	20.813	7.287
9850000000	22.394	18.831674	20.549	20.410	8.297
9900000000	11.610	17.664766	16.568	16.329	7.784
9950000000	24.284	16.324796	18.886	19.407	6.406
10000000000	20.254	16.238416	17.724	18.439	8.137
10050000000	17.742	15.881243	16.866	18.074	7.429
10100000000	23.514	14.739318	17.979	18.239	7.455
10150000000	20.534	13.307477	15.123	15.835	6.868
10200000000	14.941	11.496330	13.170	13.648	6.764
10250000000	17.017	9.682027	12.557	12.893	7.644
10300000000	8.921	7.538981	7.960	7.669	7.911
10350000000	19.247	5.480370	10.074	10.629	6.133
10400000000	13.870	3.993372	7.159	8.076	6.905
10450000000	21.425	2.494117	5.466	6.006	8.649
10500000000	7.265	4.406292	5.080	4.622	7.546
10550000000	30.676	4.124052	7.835	8.386	7.238
10600000000	22.213	5.571064	9.969	9.947	6.177
10650000000	13.582	7.499400	9.385	9.432	6.628
10700000000	13.857	8.828999	11.368	12.242	7.488
10750000000	13.243	10.324912	11.299	11.961	8.759
10800000000	15.344	9.536078	12.718	13.516	7.034
10850000000	14.222	10.155456	12.169	12.638	7.198
10900000000	12.446	11.096352	11.540	11.234	7.729
10950000000	21.652	11.597455	15.284	16.165	7.657
11000000000	13.993	9.809570	11.917	12.995	7.178
11050000000	18.227	10.987606	14.934	15.874	7.473
11100000000	21.972	11.586161	15.844	16.872	6.279
11150000000	19.808	10.774914	12.557	12.989	7.316
11200000000	20.939	10.525552	15.294	16.279	6.507
11250000000	20.969	11.360691	15.459	16.864	8.081
11300000000	31.095	13.367054	19.299	20.887	6.930
11350000000	22.526	13.383304	16.478	17.426	8.091
11400000000	22.534	11.910592	16.402	17.830	5.876
11450000000	21.561	13.405285	17.781	18.912	6.518
11500000000	20.678	15.032296	18.144	19.468	7.248
11550000000	28.914	15.951575	20.182	20.419	6.502
11600000000	25.068	15.019334	19.463	20.834	6.990
11650000000	28.678	16.207250	21.802	22.420	6.281
11700000000	38.024	18.037711	25.265	26.915	6.263
11750000000	37.501	18.460988	22.963	24.024	5.990
11800000000	38.791	18.189003	23.846	25.283	5.729
11850000000	36.764	19.469595	24.391	25.407	5.993
11900000000	29.835	19.067371	25.440	26.550	4.772
11950000000	32.487	20.813545	28.140	29.778	5.645
12000000000	29.153	21.033627	26.354	27.335	5.865
12050000000	27.476	21.226532	25.482	26.702	6.141
12100000000	33.131	21.231181	28.454	29.860	5.776
12150000000	35.211	22.551329	30.037	31.865	7.196
12200000000	33.044	22.312856	29.898	31.197	5.166
12250000000	34.323	22.153785	28.602	30.201	5.929
12300000000	33.715	22.415936	29.782	32.068	6.647
12350000000	36.798	23.167951	31.051	33.099	7.221
12400000000	34.269	21.724464	29.374	31.166	7.246
12450000000	36.966	22.617615	30.826	32.676	5.748
12500000000	30.703	22.147884	27.765	29.305	5.436
12550000000	28.564	20.681219	26.948	27.813	4.526
12600000000	28.894	22.136187	27.580	28.281	3.992
12650000000	27.854	21.882025	26.424	27.442	5.235
12700000000	28.613	21.260643	26.957	28.225	5.700
12750000000	26.507	21.706694	25.473	26.167	4.196
12800000000	28.914	20.509552	26.772	27.802	4.732
12850000000	26.631	21.362351	25.627	26.426	4.463
12900000000	24.793	21.067084	23.940	24.602	5.858
12950000000	21.851	19.704408	21.505	21.821	3.708
13000000000	21.520	17.497602	20.575	20.882	4.702
13050000000	27.641	17.607278	24.586	26.185	5.727
13100000000	24.514	17.769000	22.647	23.691	5.315
13150000000	22.808	17.515235	20.848	22.018	7.509
13200000000	26.117	16.284823	22.724	24.145	5.761
13250000000	19.014	16.540017	18.205	18.992	5.294
13300000000	20.114	16.572589	19.286	19.712	4.666
13350000000	16.230	16.722096	16.335	16.142	4.998
13400000000	16.982	13.136230	15.777	16.383	5.990
13450000000	15.341	11.497694	14.008	14.558	6.302
13500000000	14.035	11.172827	12.716	12.812	6.281
13550000000	10.757	9.756991	10.401	10.556	5.654
13600000000	14.887	9.198574	11.702	13.396	7.413
13650000000	10.286	9.595047	9.957	9.794	7.532
13700000000	12.485	14.479954	13.202	12.559	7.105
13750000000	17.630	15.271677	16.726	16.928	5.925
13800000000	23.679	16.539850	19.955	20.536	7.233
13850000000	18.316	16.986551	17.594	17.853	7.435
13900000000	18.225	17.045353	17.725	17.794	7.227
13950000000	16.788	17.685862	17.135	17.317	6.789
14000000000	14.123	16.966864	15.541	15.024	6.679
14050000000	22.408	17.042091	18.119	18.482	6.814
14100000000	20.098	16.309490	17.609	18.374	8.389
14150000000	19.953	15.924771	18.660	19.347	6.323
14200000000	19.750	15.313110	18.191	19.170	6.440
14250000000	18.077	13.480600	16.141	17.113	7.196
14300000000	15.219	12.960745	14.128	13.918	7.368
14350000000	12.167	13.991517	12.824	12.324	6.982
14400000000	6.796	11.686430	8.895	7.524	6.877
14450000000	6.956	10.994888	8.365	7.542	6.017
14500000000	4.576	8.879851	5.875	5.201	6.229
14550000000	5.288	6.375360	5.527	5.423	4.754
14600000000	-4.818	4.691989	-1.613	-3.191	6.244
14650000000	-2.799	3.278478	-1.485	-2.505	5.069
14700000000	-4.409	0.427212	-3.085	-4.191	6.237
14750000000	-5.528	3.522761	-2.781	-4.927	7.098
14800000000	3.371	8.901407	4.356	3.429	5.044
14850000000	10.472	12.450483	10.772	10.601	3.882
14900000000	11.961	14.437750	12.427	11.623	5.448
14950000000	16.228	17.347474	16.686	16.919	6.160
15000000000	15.910	17.277153	16.397	16.179	6.172
15050000000	22.815	15.988655	20.154	21.155	6.911
15100000000	23.638	18.431594	21.593	22.380	6.664
15150000000	24.169	20.531902	22.954	23.381	5.531
15200000000	19.607	22.112781	20.194	19.712	5.687
15250000000	17.923	20.619396	18.375	17.899	4.099
15300000000	22.575	21.594554	22.341	22.416	5.212
15350000000	20.137	20.509421	20.232	19.978	5.613
15400000000	15.492	19.258815	16.367	15.659	4.867
15450000000	14.817	18.804260	16.104	15.749	5.878
15500000000	14.764	15.571681	15.076	15.088	5.801
15550000000	15.942	13.366468	14.811	15.629	5.819
15600000000	10.965	10.683911	10.882	11.198	5.422
15650000000	8.478	5.034234	7.531	8.230	5.416
15700000000	4.352	5.239168	4.601	3.804	6.082
15750000000	7.601	10.654621	8.711	8.378	6.354
15800000000	10.205	12.760660	10.884	9.675	6.739
15850000000	10.266	12.558450	10.936	10.761	4.815
15900000000	15.026	15.079807	15.038	15.539	5.584
15950000000	13.863	16.608450	14.709	13.887	5.446
16000000000	16.302	17.135361	16.610	15.954	5.857
16050000000	14.351	17.711408	15.488	14.666	6.646
16100000000	13.950	18.294227	15.783	15.070	7.281
16150000000	12.936	16.730411	14.980	14.619	7.617
16200000000	17.578	16.319458	16.654	16.543	7.293
16250000000	18.157	18.021448	18.056	18.387	7.424
16300000000	19.099	16.766648	17.481	18.587	8.085
16350000000	14.004	12.876490	13.283	13.723	6.753
16400000000	14.247	9.522437	11.563	12.164	6.701
16450000000	8.657	11.419869	10.615	9.957	7.399
16500000000	13.502	10.786138	12.453	13.209	7.373
16550000000	15.838	12.809625	14.189	14.847	6.469
16600000000	17.403	17.957057	17.659	16.975	6.787
16650000000	17.069	19.679532	18.451	18.466	7.016
16700000000	13.709	20.197038	17.222	16.833	7.015
16750000000	14.011	23.130349	17.904	16.801	6.405
16800000000	18.028	24.385871	20.848	19.094	6.795
16850000000	4.057	23.265166	16.397	14.673	6.673
16900000000	7.397	20.546553	14.344	12.796	6.206
16950000000	4.591	15.917724	10.707	9.685	5.939
17000000000	12.045	11.959256	12.011	12.436	7.076
17050000000	13.715	20.607563	18.418	18.011	7.479
17100000000	11.133	20.057603	15.859	14.566	6.306
17150000000	9.823	22.438128	15.972	14.727	6.627
17200000000	8.808	21.123415	17.423	16.893	7.869
17250000000	11.022	17.855958	14.149	13.124	7.036
17300000000	-2.549	10.554053	7.374	7.299	6.449
17350000000	23.620	11.751264	13.353	13.824	7.640
17400000000	21.714	18.921092	20.016	19.864	7.253
17450000000	13.893	22.813725	18.982	17.738	6.973
17500000000	8.887	24.928295	20.151	19.519	5.459
17550000000	17.348	25.558675	21.610	20.949	6.359
17600000000	19.025	27.528624	22.276	20.817	5.957
17650000000	6.244	29.749208	22.401	20.233	7.061
17700000000	12.716	28.499879	22.638	21.304	7.347
17750000000	18.378	28.860369	24.635	24.066	6.877
17800000000	22.563	29.630474	25.546	24.674	5.912
17850000000	19.102	30.803521	24.409	23.058	5.623
17900000000	16.349	30.002810	23.022	21.407	5.537
17950000000	11.347	30.189823	23.684	22.639	5.543
18000000000	19.852	31.320918	24.069	22.262	5.900
18050000000	24.656	32.268042	27.116	25.573	5.990
18100000000	4.971	31.170441	22.795	21.442	5.349
18150000000	29.375	31.144402	29.985	29.540	6.532
18200000000	23.462	30.316192	26.567	25.958	6.877
18250000000	19.492	30.636201	24.921	23.997	6.857
18300000000	17.188	31.673967	24.790	23.328	6.439
18350000000	22.451	30.937204	26.941	26.536	6.438
18400000000	35.353	29.474568	32.877	33.637	7.256
18450000000	31.608	29.465983	30.870	31.400	7.027
18500000000	33.227	30.910614	32.471	32.658	6.111
18550000000	33.181	30.608700	32.067	31.761	8.101
18600000000	27.832	29.138945	28.147	27.919	4.779
18650000000	27.993	27.936644	27.979	28.125	4.963
18700000000	26.319	29.760175	27.165	26.396	5.330
18750000000	30.368	29.094544	30.050	30.338	5.552
18800000000	29.355	27.095302	28.891	29.295	4.254
18850000000	31.925	27.097659	30.936	32.363	5.764
18900000000	32.317	26.099511	30.900	31.753	5.286
18950000000	24.335	26.483001	24.838	24.275	6.089
19000000000	22.518	23.011321	22.597	22.510	3.949
19050000000	21.815	22.777681	21.980	21.763	4.283
19100000000	19.256	20.202636	19.355	19.270	2.813
19150000000	12.522	16.264961	12.870	12.637	2.864
19200000000	11.419	15.054962	11.835	11.249	3.587
19250000000	11.804	12.071630	11.838	11.700	3.511
19300000000	12.567	10.434314	12.178	12.741	4.547
19350000000	17.071	16.702302	17.018	17.093	3.668
19400000000	20.236	21.116770	20.338	20.263	3.165
19450000000	21.831	23.052126	21.963	21.924	2.917
19500000000	23.895	25.198832	24.005	23.991	2.487
19550000000	23.539	25.221291	23.677	23.535	2.666
19600000000	22.740	24.788365	22.915	22.705	2.971
19650000000	21.903	23.419469	22.037	21.870	2.734
19700000000	22.487	21.503619	22.398	22.567	2.924
19750000000	20.941	20.023548	20.878	20.920	2.199
19800000000	17.016	21.135247	17.312	16.951	2.672
19850000000	17.681	21.387490	17.896	17.641	2.412
19900000000	17.304	19.727255	17.450	17.261	2.556
19950000000	15.791	17.810734	15.921	15.847	2.239
20000000000	15.352	17.054765	15.444	15.384	1.946
